Wavelength(nm),Var#1(21sec)
403.224,9.00E+08
403.635,9.92E+08
404.045,1.02E+09
404.455,9.80E+08
404.865,1.19E+09
405.274,1.14E+09
405.682,1.20E+09
406.09,1.34E+09
406.498,1.39E+09
406.906,1.59E+09
407.313,1.48E+09
407.719,1.62E+09
408.126,1.70E+09
408.532,1.75E+09
408.937,1.95E+09
409.343,2.05E+09
409.747,2.19E+09
410.152,2.10E+09
410.556,2.34E+09
410.96,2.51E+09
411.364,2.49E+09
411.767,2.73E+09
412.171,2.84E+09
412.573,2.99E+09
412.976,3.17E+09
413.378,3.20E+09
413.78,3.27E+09
414.182,3.54E+09
414.583,3.66E+09
414.984,3.93E+09
415.385,4.03E+09
415.786,4.30E+09
416.186,4.51E+09
416.587,4.62E+09
416.987,5.02E+09
417.386,5.07E+09
417.786,5.29E+09
418.185,5.63E+09
418.584,5.68E+09
418.983,6.13E+09
419.382,5.99E+09
419.78,6.49E+09
420.179,6.59E+09
420.577,6.79E+09
420.975,6.98E+09
421.372,7.36E+09
421.77,7.65E+09
422.167,7.70E+09
422.565,8.04E+09
422.962,8.44E+09
423.359,8.53E+09
423.755,8.82E+09
424.152,9.17E+09
424.548,9.49E+09
424.945,9.93E+09
425.341,9.88E+09
425.737,1.01E+10
426.133,1.06E+10
426.529,1.07E+10
426.924,1.11E+10
427.32,1.15E+10
427.715,1.19E+10
428.111,1.20E+10
428.506,1.24E+10
428.901,1.24E+10
429.296,1.27E+10
429.691,1.30E+10
430.085,1.34E+10
430.48,1.36E+10
430.875,1.44E+10
431.269,1.41E+10
431.663,1.44E+10
432.058,1.48E+10
432.452,1.53E+10
432.846,1.53E+10
433.24,1.59E+10
433.634,1.61E+10
434.028,1.62E+10
434.422,1.67E+10
434.816,1.69E+10
435.209,1.71E+10
435.603,1.76E+10
435.997,1.74E+10
436.39,1.80E+10
436.784,1.86E+10
437.177,1.84E+10
437.571,1.89E+10
437.964,1.86E+10
438.357,1.93E+10
438.75,1.93E+10
439.143,1.96E+10
439.537,1.99E+10
439.93,2.00E+10
440.323,2.04E+10
440.716,2.05E+10
441.109,2.07E+10
441.502,2.04E+10
441.895,2.11E+10
442.288,2.16E+10
442.68,2.10E+10
443.073,2.17E+10
443.466,2.18E+10
443.859,2.21E+10
444.252,2.24E+10
444.644,2.23E+10
445.037,2.26E+10
445.43,2.30E+10
445.823,2.31E+10
446.215,2.27E+10
446.608,2.31E+10
447,2.33E+10
447.393,2.35E+10
447.786,2.35E+10
448.178,2.36E+10
448.571,2.37E+10
448.964,2.38E+10
449.356,2.39E+10
449.749,2.40E+10
450.141,2.42E+10
450.534,2.43E+10
450.927,2.42E+10
451.319,2.44E+10
451.712,2.45E+10
452.104,2.45E+10
452.497,2.44E+10
452.889,2.45E+10
453.282,2.48E+10
453.675,2.51E+10
454.067,2.52E+10
454.46,2.49E+10
454.852,2.54E+10
455.245,2.52E+10
455.638,2.53E+10
456.03,2.52E+10
456.423,2.54E+10
456.815,2.53E+10
457.208,2.53E+10
457.601,2.53E+10
457.993,2.51E+10
458.386,2.53E+10
458.779,2.55E+10
459.172,2.53E+10
459.564,2.54E+10
459.957,2.58E+10
460.35,2.57E+10
460.742,2.55E+10
461.135,2.56E+10
461.528,2.56E+10
461.921,2.52E+10
462.314,2.56E+10
462.706,2.53E+10
463.099,2.56E+10
463.492,2.56E+10
463.885,2.55E+10
464.278,2.54E+10
464.671,2.52E+10
465.064,2.54E+10
465.457,2.53E+10
465.849,2.53E+10
466.242,2.51E+10
466.635,2.52E+10
467.028,2.52E+10
467.421,2.49E+10
467.814,2.50E+10
468.207,2.53E+10
468.6,2.48E+10
468.994,2.51E+10
469.387,2.46E+10
469.78,2.52E+10
470.173,2.44E+10
470.566,2.49E+10
470.959,2.45E+10
471.352,2.44E+10
471.745,2.44E+10
472.139,2.41E+10
472.532,2.37E+10
472.925,2.42E+10
473.318,2.40E+10
473.712,2.38E+10
474.105,2.38E+10
474.498,2.35E+10
474.891,2.35E+10
475.285,2.38E+10
475.678,2.31E+10
476.071,2.30E+10
476.465,2.33E+10
476.858,2.31E+10
477.252,2.29E+10
477.645,2.27E+10
478.038,2.26E+10
478.432,2.24E+10
478.825,2.20E+10
479.219,2.24E+10
479.612,2.21E+10
480.006,2.21E+10
480.399,2.19E+10
480.793,2.17E+10
481.186,2.14E+10
481.58,2.13E+10
481.973,2.13E+10
482.367,2.09E+10
482.76,2.11E+10
483.154,2.08E+10
483.547,2.08E+10
483.941,2.08E+10
484.335,2.06E+10
484.728,2.01E+10
485.122,2.03E+10
485.515,1.99E+10
485.909,1.99E+10
486.303,1.99E+10
486.696,1.96E+10
487.09,1.94E+10
487.483,1.93E+10
487.877,1.93E+10
488.271,1.91E+10
488.664,1.88E+10
489.058,1.87E+10
489.452,1.87E+10
489.845,1.85E+10
490.239,1.82E+10
490.633,1.82E+10
491.026,1.80E+10
491.42,1.78E+10
491.814,1.80E+10
492.207,1.77E+10
492.601,1.74E+10
492.995,1.73E+10
493.388,1.71E+10
493.782,1.70E+10
494.176,1.70E+10
494.569,1.68E+10
494.963,1.67E+10
495.357,1.64E+10
495.75,1.65E+10
496.144,1.65E+10
496.538,1.62E+10
496.931,1.60E+10
497.325,1.58E+10
497.719,1.59E+10
498.112,1.55E+10
498.506,1.54E+10
498.899,1.52E+10
499.293,1.51E+10
499.687,1.51E+10
500.08,1.48E+10
500.474,1.48E+10
500.867,1.47E+10
501.261,1.45E+10
501.654,1.47E+10
502.048,1.44E+10
502.442,1.43E+10
502.835,1.41E+10
503.229,1.40E+10
503.622,1.39E+10
504.016,1.37E+10
504.409,1.37E+10
504.802,1.33E+10
505.196,1.34E+10
505.589,1.32E+10
505.983,1.32E+10
506.376,1.30E+10
506.77,1.29E+10
507.163,1.28E+10
507.556,1.26E+10
507.95,1.27E+10
508.343,1.25E+10
508.736,1.23E+10
509.129,1.22E+10
509.523,1.19E+10
509.916,1.21E+10
510.309,1.18E+10
510.702,1.16E+10
511.096,1.16E+10
511.489,1.14E+10
511.882,1.13E+10
512.275,1.12E+10
512.668,1.12E+10
513.061,1.10E+10
513.454,1.09E+10
513.847,1.08E+10
514.24,1.07E+10
514.633,1.05E+10
515.026,1.05E+10
515.419,1.05E+10
515.812,1.04E+10
516.205,1.03E+10
516.598,1.02E+10
516.991,1.00E+10
517.384,1.00E+10
517.776,9.88E+09
518.169,9.74E+09
518.562,9.64E+09
518.955,9.59E+09
519.347,9.42E+09
519.74,9.32E+09
520.133,9.32E+09
520.525,9.25E+09
520.918,9.17E+09
521.31,8.99E+09
521.703,8.84E+09
522.095,8.67E+09
522.488,8.69E+09
522.88,8.60E+09
523.272,8.55E+09
523.665,8.49E+09
524.057,8.34E+09
524.449,8.18E+09
524.842,8.14E+09
525.234,8.10E+09
525.626,8.00E+09
526.018,7.85E+09
526.41,7.90E+09
526.803,7.75E+09
527.195,7.52E+09
527.587,7.52E+09
527.979,7.52E+09
528.371,7.36E+09
528.763,7.31E+09
529.154,7.42E+09
529.546,7.26E+09
529.938,7.13E+09
530.33,7.03E+09
530.722,6.99E+09
531.113,6.89E+09
531.505,6.81E+09
531.897,6.69E+09
532.288,6.58E+09
532.68,6.62E+09
533.071,6.56E+09
533.463,6.54E+09
533.854,6.39E+09
534.246,6.51E+09
534.637,6.25E+09
535.029,6.20E+09
535.42,6.06E+09
535.811,6.08E+09
536.202,6.03E+09
536.594,5.97E+09
536.985,5.91E+09
537.376,5.85E+09
537.767,5.79E+09
538.158,5.75E+09
538.549,5.64E+09
538.94,5.57E+09
539.331,5.53E+09
539.722,5.35E+09
540.113,5.35E+09
540.503,5.31E+09
540.894,5.19E+09
541.285,5.22E+09
541.676,5.11E+09
542.066,5.06E+09
542.457,5.01E+09
542.847,4.93E+09
543.238,4.92E+09
543.628,4.96E+09
544.019,4.75E+09
544.409,4.82E+09
544.8,4.73E+09
545.19,4.60E+09
545.58,4.72E+09
545.971,4.45E+09
546.361,4.46E+09
546.751,4.53E+09
547.141,4.39E+09
547.531,4.34E+09
547.921,4.24E+09
548.311,4.32E+09
548.701,4.22E+09
549.091,4.11E+09
549.481,4.12E+09
549.871,4.12E+09
550.261,4.02E+09
550.65,4.06E+09
551.04,3.95E+09
551.43,3.86E+09
551.819,3.77E+09
552.209,3.86E+09
552.599,3.83E+09
552.988,3.72E+09
553.378,3.65E+09
553.767,3.64E+09
554.156,3.71E+09
554.546,3.60E+09
554.935,3.55E+09
555.324,3.51E+09
555.714,3.40E+09
556.103,3.44E+09
556.492,3.37E+09
556.881,3.27E+09
557.27,3.34E+09
557.659,3.26E+09
558.048,3.28E+09
558.437,3.20E+09
558.826,3.18E+09
559.215,3.16E+09
559.604,3.06E+09
559.992,3.05E+09
560.381,2.99E+09
560.77,2.97E+09
561.159,2.92E+09
561.547,2.87E+09
561.936,2.89E+09
562.324,2.87E+09
562.713,2.86E+09
563.101,2.82E+09
563.49,2.71E+09
563.878,2.66E+09
564.267,2.72E+09
564.655,2.63E+09
565.043,2.65E+09
565.431,2.57E+09
565.82,2.60E+09
566.208,2.56E+09
566.596,2.50E+09
566.984,2.54E+09
567.372,2.52E+09
567.76,2.42E+09
568.148,2.46E+09
568.536,2.37E+09
568.924,2.37E+09
569.312,2.36E+09
569.7,2.32E+09
570.087,2.25E+09
570.475,2.23E+09
570.863,2.21E+09
571.251,2.24E+09
571.638,2.25E+09
572.026,2.16E+09
572.413,2.16E+09
572.801,2.20E+09
573.189,2.12E+09
573.576,2.06E+09
573.963,2.01E+09
574.351,2.00E+09
574.738,2.02E+09
575.126,2.00E+09
575.513,1.95E+09
575.9,1.91E+09
576.287,2.00E+09
576.675,1.85E+09
577.062,1.85E+09
577.449,1.90E+09
577.836,1.86E+09
578.223,1.81E+09
578.61,1.82E+09
578.997,1.82E+09
579.384,1.78E+09
579.771,1.71E+09
580.158,1.69E+09
580.545,1.66E+09
580.932,1.56E+09
581.319,1.65E+09
581.705,1.62E+09
582.092,1.60E+09
582.479,1.61E+09
582.866,1.50E+09
583.252,1.52E+09
583.639,1.51E+09
584.026,1.55E+09
584.412,1.51E+09
584.799,1.47E+09
585.185,1.48E+09
585.572,1.46E+09
585.958,1.48E+09
586.345,1.43E+09
586.731,1.40E+09
587.118,1.39E+09
587.504,1.36E+09
587.89,1.38E+09
588.277,1.37E+09
588.663,1.29E+09
589.049,1.31E+09
589.435,1.29E+09
589.822,1.29E+09
590.208,1.33E+09
590.594,1.29E+09
590.98,1.26E+09
591.366,1.19E+09
591.752,1.21E+09
592.138,1.23E+09
592.524,1.14E+09
592.91,1.17E+09
593.296,1.16E+09
593.682,1.16E+09
594.068,1.15E+09
594.454,1.10E+09
594.84,1.08E+09
595.226,1.08E+09
595.612,1.10E+09
595.998,1.06E+09
596.383,1.06E+09
596.769,1.01E+09
597.155,9.87E+08
597.541,1.02E+09
597.926,9.82E+08
598.312,1.04E+09
598.698,1.01E+09
599.083,9.50E+08
599.469,9.73E+08
599.855,9.31E+08
600.24,9.21E+08
600.626,9.47E+08
601.011,9.36E+08
601.397,9.27E+08
601.782,9.22E+08
602.168,9.50E+08
602.553,8.77E+08
602.939,8.92E+08
603.324,8.62E+08
603.71,9.01E+08
604.095,8.76E+08
604.481,8.43E+08
604.866,8.09E+08
605.251,8.19E+08
605.637,8.72E+08
606.022,8.20E+08
606.407,7.88E+08
606.793,7.97E+08
607.178,7.47E+08
607.563,8.13E+08
607.949,7.80E+08
608.334,7.75E+08
608.719,7.59E+08
609.104,7.25E+08
609.489,7.90E+08
609.875,7.60E+08
610.26,7.62E+08
610.645,7.44E+08
611.03,7.04E+08
611.415,7.10E+08
611.8,6.62E+08
612.185,6.95E+08
612.571,6.86E+08
612.956,6.54E+08
613.341,6.57E+08
613.726,6.97E+08
614.111,6.17E+08
614.496,6.62E+08
614.881,6.70E+08
615.266,6.40E+08
615.651,5.79E+08
616.036,6.26E+08
616.421,6.35E+08
616.806,6.51E+08
617.191,6.32E+08
617.576,6.15E+08
617.961,5.74E+08
618.346,6.01E+08
618.731,5.80E+08
619.115,5.89E+08
619.5,5.14E+08
619.885,5.75E+08
620.27,5.45E+08
620.655,5.18E+08
621.04,5.70E+08
621.425,5.44E+08
621.81,5.29E+08
622.194,5.53E+08
622.579,5.37E+08
622.964,5.45E+08
623.349,5.22E+08
623.734,5.16E+08
624.119,5.07E+08
624.503,5.28E+08
624.888,4.63E+08
625.273,4.91E+08
625.658,5.01E+08
626.042,4.71E+08
626.427,5.04E+08
626.812,4.60E+08
627.197,4.31E+08
627.581,4.34E+08
627.966,4.62E+08
628.351,4.81E+08
628.736,4.74E+08
629.12,4.11E+08
629.505,4.45E+08
629.89,4.50E+08
630.274,4.40E+08
630.659,4.28E+08
631.044,4.58E+08
631.428,4.22E+08
631.813,4.21E+08
632.198,3.85E+08
632.582,4.20E+08
632.967,3.76E+08
633.352,3.66E+08
633.736,3.74E+08
634.121,3.98E+08
634.506,4.11E+08
634.89,4.10E+08
635.275,3.62E+08
635.659,3.51E+08
636.044,3.57E+08
636.429,3.76E+08
636.813,3.90E+08
637.198,3.54E+08
637.582,3.89E+08
637.967,3.71E+08
638.352,3.84E+08
638.736,3.32E+08
639.121,3.49E+08
639.505,3.63E+08
639.89,3.82E+08
640.275,3.62E+08
640.659,3.29E+08
641.044,3.21E+08
641.428,3.41E+08
641.813,3.53E+08
642.197,3.03E+08
642.582,2.98E+08
642.966,3.18E+08
643.351,3.17E+08
643.735,3.21E+08
644.12,3.16E+08
644.504,3.18E+08
644.889,3.15E+08
645.273,3.35E+08
645.658,2.86E+08
646.042,3.09E+08
646.427,3.16E+08
646.811,3.19E+08
647.196,2.78E+08
647.58,2.76E+08
647.965,3.21E+08
648.349,2.78E+08
648.734,2.76E+08
649.118,2.34E+08
649.503,2.90E+08
649.887,2.93E+08
650.272,2.62E+08
650.656,2.80E+08
651.04,2.49E+08
651.425,2.50E+08
651.809,2.83E+08
652.194,2.48E+08
652.578,2.66E+08
652.962,2.77E+08
653.347,2.40E+08
653.731,2.38E+08
654.116,2.25E+08
654.5,2.55E+08
654.884,2.76E+08
655.269,2.45E+08
655.653,2.68E+08
656.037,2.56E+08
656.422,2.39E+08
656.806,2.40E+08
657.19,2.12E+08
657.575,2.87E+08
657.959,1.99E+08
658.343,2.33E+08
658.728,2.39E+08
659.112,2.07E+08
659.496,2.16E+08
659.881,2.20E+08
660.265,1.93E+08
660.649,2.17E+08
661.033,2.42E+08
661.418,2.08E+08
661.802,2.02E+08
662.186,2.02E+08
662.57,1.93E+08
662.955,2.26E+08
663.339,2.14E+08
663.723,2.22E+08
664.107,1.92E+08
664.491,2.34E+08
664.875,1.99E+08
665.26,1.98E+08
665.644,1.90E+08
666.028,1.80E+08
666.412,1.83E+08
666.796,1.95E+08
667.18,2.09E+08
667.564,1.78E+08
667.948,1.66E+08
668.333,1.86E+08
668.717,1.54E+08
669.101,1.63E+08
669.485,1.66E+08
669.869,1.98E+08
670.253,1.96E+08
670.637,2.05E+08
671.021,1.96E+08
671.405,1.85E+08
671.789,1.69E+08
672.173,1.61E+08
672.557,1.64E+08
672.94,1.87E+08
673.324,1.68E+08
673.708,1.60E+08
674.092,1.83E+08
674.476,1.84E+08
674.86,1.41E+08
675.244,1.63E+08
675.628,1.53E+08
676.011,1.82E+08
676.395,1.74E+08
676.779,1.48E+08
677.163,1.67E+08
677.546,1.94E+08
677.93,1.59E+08
678.314,1.69E+08
678.697,1.62E+08
679.081,1.65E+08
679.465,1.59E+08
679.848,1.40E+08
680.232,1.55E+08
680.616,1.05E+08
680.999,1.26E+08
681.383,1.67E+08
681.766,1.74E+08
682.15,1.85E+08
682.533,1.52E+08
682.917,1.56E+08
683.3,1.09E+08
683.684,1.63E+08
684.067,1.59E+08
684.451,1.81E+08
684.834,1.42E+08
685.217,1.28E+08
685.601,1.28E+08
685.984,1.21E+08
686.367,1.31E+08
686.75,1.26E+08
687.134,1.40E+08
687.517,1.36E+08
687.9,1.39E+08
688.283,1.34E+08
688.666,1.03E+08
689.05,1.45E+08
689.433,1.27E+08
689.816,1.54E+08
690.199,1.15E+08
690.582,1.56E+08
690.965,1.41E+08
691.348,9.08E+07
691.731,1.48E+08
692.114,1.54E+08
692.496,1.27E+08
692.879,1.36E+08
693.262,1.31E+08
693.645,1.14E+08
694.028,1.31E+08
694.41,1.19E+08
694.793,9.83E+07
695.176,1.34E+08
695.559,1.12E+08
695.941,1.18E+08
696.324,1.47E+08
696.706,1.15E+08
697.089,1.48E+08
697.471,1.26E+08
697.854,1.37E+08
698.236,9.36E+07
698.619,1.43E+08
699.001,1.43E+08
699.383,8.23E+07
699.766,1.11E+08
700.148,9.93E+07
700.53,1.06E+08
700.912,8.37E+07
701.295,1.34E+08
701.677,1.28E+08
702.059,6.76E+07
702.441,1.52E+08
702.823,7.72E+07
703.205,1.09E+08
703.587,1.02E+08
703.969,1.18E+08
704.351,1.08E+08
704.733,8.50E+07
705.115,7.87E+07
705.496,1.03E+08
705.878,1.36E+08
706.26,8.36E+07
706.641,1.28E+08
707.023,8.57E+07
707.405,8.77E+07
707.786,9.95E+07
708.168,1.00E+08
708.549,1.10E+08
708.931,1.47E+08
709.312,9.01E+07
709.693,1.13E+08
710.075,8.48E+07
710.456,1.01E+08
710.837,9.81E+07
711.219,9.84E+07
711.6,8.35E+07
711.981,8.93E+07
712.362,1.34E+08
712.743,8.56E+07
713.124,9.93E+07
713.505,9.75E+07
713.886,1.09E+08
714.267,1.02E+08
714.647,1.01E+08
715.028,1.52E+08
715.409,1.13E+08
715.79,1.05E+08
716.17,9.34E+07
716.551,1.44E+08
716.931,1.25E+08
717.312,6.68E+07
717.692,8.87E+07
718.073,1.18E+08
718.453,1.25E+08
718.834,9.15E+07
719.214,1.38E+08
719.594,9.87E+07
719.974,1.07E+08
720.354,1.37E+08
720.734,7.93E+07
721.115,1.23E+08
721.495,6.69E+07
721.874,1.01E+08
722.254,1.22E+08
722.634,8.09E+07
723.014,1.08E+08
723.394,9.75E+07
723.774,9.99E+07
724.153,1.25E+08
724.533,9.89E+07
724.912,1.01E+08
725.292,1.03E+08
725.671,1.72E+08
726.051,9.72E+07
726.43,1.23E+08
726.809,7.70E+07
727.189,1.28E+08
727.568,9.51E+07
727.947,1.12E+08
728.326,1.51E+08
728.705,9.27E+07
729.084,6.52E+07
729.463,8.35E+07
729.842,6.98E+07
730.221,1.14E+08
730.6,9.96E+07
730.979,2.42E+07
731.357,1.08E+08
731.736,7.66E+07
732.115,5.81E+07
732.493,1.04E+08
732.872,9.48E+07
733.25,1.21E+08
733.628,1.04E+08
734.007,1.07E+08
734.385,9.16E+07
734.763,6.34E+07
735.142,9.58E+07
735.52,1.18E+08
735.898,1.19E+08
736.276,1.37E+08
736.654,8.52E+07
737.032,7.12E+07
737.41,7.97E+07
737.787,8.11E+07
738.165,1.31E+08
738.543,1.29E+08
738.921,7.77E+07
739.298,1.02E+08
739.676,7.69E+07
740.053,1.21E+08
740.431,1.39E+08
740.808,4.80E+07
741.185,1.12E+08
741.563,8.52E+07
741.94,9.82E+07
742.317,1.23E+08
742.694,1.14E+08
743.071,1.04E+08
743.448,8.35E+07
743.825,1.10E+08
744.202,9.87E+07
744.579,8.40E+07
744.956,1.41E+08
745.333,8.86E+07
745.709,1.12E+08
746.086,1.21E+08
746.463,8.37E+07
746.839,9.47E+07
747.216,1.03E+08
747.592,8.24E+07
747.969,1.20E+08
748.345,1.20E+08
748.721,6.09E+07
749.098,9.80E+07
749.474,6.78E+07
749.85,8.09E+07
750.226,5.89E+07
750.602,9.83E+07
750.978,7.63E+07
751.354,9.55E+07
751.73,7.17E+07
752.106,6.04E+07
752.482,7.64E+07
752.857,1.18E+08
753.233,1.35E+08
753.609,4.67E+07
753.984,8.37E+07
754.36,8.68E+07
754.735,4.13E+07
755.111,4.77E+07
755.486,9.42E+07
755.861,1.10E+08
756.237,1.18E+08
756.612,3.81E+07
756.987,1.46E+08
757.362,5.74E+07
757.737,8.50E+07
758.112,1.14E+08
758.488,1.72E+08
758.862,9.28E+07
759.237,6.08E+07
759.612,6.25E+07
759.987,1.07E+08
760.362,6.23E+07
760.737,1.22E+08
761.111,7.38E+07
761.486,1.23E+08
761.861,9.19E+07
762.235,1.05E+08
762.61,7.61E+07
762.984,6.78E+07
763.359,1.16E+08
763.733,5.70E+07
764.107,8.12E+07
764.482,8.96E+07
764.856,7.61E+07
765.23,6.22E+07
765.604,9.82E+07
765.979,6.26E+07
766.353,1.21E+08
766.727,6.09E+07
767.101,6.40E+07
767.475,6.80E+07
767.849,8.16E+07
768.223,9.61E+07
768.596,8.83E+07
768.97,5.79E+07
769.344,1.10E+08
769.718,5.63E+07
770.092,1.30E+08
770.465,7.13E+07
770.839,1.31E+08
771.213,1.57E+08
771.586,1.84E+08
771.96,1.59E+08
772.333,7.08E+07
772.707,6.59E+07
773.08,1.24E+08
773.454,9.22E+07
773.827,1.09E+08
774.201,1.22E+08
774.574,1.53E+08
774.947,1.03E+08
775.32,1.06E+08
775.694,1.28E+08
776.067,6.99E+07
776.44,1.05E+08
776.813,9.41E+07
777.187,5.43E+07
777.56,1.30E+08
777.933,1.06E+08
778.306,1.31E+08
778.679,1.26E+08
779.052,2.06E+07
779.425,5.95E+07
779.798,6.62E+07
780.171,1.01E+08
780.544,5.13E+07
780.917,9.75E+07
781.29,1.17E+08
781.663,4.93E+07
782.035,8.50E+07
782.408,1.01E+08
782.781,6.13E+07
783.154,1.48E+08
783.527,1.13E+08
783.9,9.56E+07
784.272,1.46E+08
784.645,1.41E+08
785.018,1.44E+08
785.391,5.40E+07
785.763,2.01E+08
786.136,8.40E+07
786.509,1.02E+08
786.882,1.16E+08
787.254,1.46E+08
787.627,6.28E+07
788,8.46E+07
788.372,1.42E+08
788.745,1.48E+08
789.118,7.90E+07
789.49,9.42E+07
789.863,5.79E+06
790.236,1.22E+08
790.608,9.31E+07
790.981,9.12E+07
791.354,1.36E+07
791.726,4.52E+07
792.099,1.51E+08
792.471,1.01E+08
792.844,1.28E+08
793.217,6.50E+07
793.589,8.73E+07
793.962,1.76E+08
794.335,4.32E+07
794.707,7.14E+07
795.08,1.18E+08
795.453,1.40E+08
795.826,1.20E+08
796.198,1.72E+08
796.571,1.20E+08
796.944,1.27E+08
797.316,1.40E+08
797.689,7.83E+07
798.062,1.41E+08
798.435,1.29E+08
798.808,8.03E+07
799.18,1.36E+08
799.553,1.90E+08
799.926,1.16E+08
800.299,6.04E+07
800.672,1.26E+08
801.045,1.52E+06
801.418,7.66E+07
801.791,1.97E+08
802.164,1.24E+08
802.537,1.50E+07
802.91,1.15E+08
803.283,1.08E+08
803.656,1.70E+08
804.029,1.72E+08
804.402,1.11E+08
804.775,6.23E+07
805.148,1.41E+08
805.521,1.10E+08
805.895,1.58E+08
806.268,1.55E+08
806.641,1.24E+08
807.015,1.21E+08
807.388,1.66E+08
807.761,1.06E+08
808.135,1.80E+08
808.508,1.62E+08
808.882,1.04E+08
809.255,6.66E+07
809.629,2.21E+08
810.003,9.36E+07
810.376,1.38E+08
810.75,1.21E+08
811.124,8.61E+07
811.497,1.29E+08
811.871,1.18E+08
812.245,2.35E+08
812.619,1.69E+08
812.993,1.54E+08
813.367,2.05E+08
813.741,1.68E+08
814.115,8.88E+07
814.489,3.14E+08
814.863,9.14E+07
815.238,2.72E+08
815.612,1.75E+08
815.986,1.11E+08
816.361,1.52E+08
816.735,1.60E+08
817.11,2.39E+08
817.484,2.57E+08
817.859,1.64E+08
818.234,2.26E+08
818.608,1.85E+08
818.983,1.01E+08
819.358,1.32E+08
819.733,1.62E+08
820.108,1.83E+08
820.483,1.69E+08
820.858,1.52E+08
821.233,2.10E+08
821.608,2.22E+08
821.983,1.64E+08
822.359,2.26E+08
822.734,2.40E+08
823.109,2.70E+08
823.485,1.91E+08
823.861,1.89E+08
824.236,2.17E+08
824.612,3.26E+08
824.988,2.28E+08
825.363,1.79E+08
825.739,1.80E+08
826.115,1.49E+08
826.491,1.77E+08
826.867,1.65E+08
827.244,2.83E+08
827.62,1.90E+08
827.996,2.96E+08
828.373,2.20E+08
828.749,2.84E+08
829.126,2.51E+08
829.502,2.42E+08
829.879,2.35E+08
830.255,2.62E+08
830.632,2.11E+08
831.009,1.96E+08
831.386,2.32E+08
831.763,1.81E+08
832.14,2.27E+08
832.517,3.03E+08
832.895,2.58E+08
833.272,4.21E+08
833.649,1.66E+08
834.027,2.95E+08
834.404,2.47E+08
834.782,3.33E+08
835.16,2.56E+08
835.538,3.14E+08
835.915,4.11E+08
836.293,2.49E+08
836.671,4.07E+08
837.049,3.15E+08
837.428,2.77E+08
837.806,2.56E+08
838.184,3.08E+08
838.562,3.15E+08
838.941,3.58E+08
839.319,3.88E+08
839.698,4.13E+08
840.077,2.97E+08
840.455,2.44E+08
840.834,3.29E+08
841.213,4.14E+08
841.592,2.84E+08
841.971,2.98E+08
842.35,3.65E+08
842.73,4.54E+08
843.109,4.55E+08
843.488,2.52E+08
843.868,4.07E+08
844.247,2.90E+08
844.627,4.08E+08
845.006,3.32E+08
845.386,4.49E+08
845.766,4.25E+08
846.146,3.44E+08
846.525,3.68E+08
846.905,4.37E+08
847.285,2.21E+08
847.666,3.84E+08
848.046,4.04E+08
848.426,4.63E+08
848.806,3.31E+08
849.187,4.14E+08
849.567,3.61E+08
849.948,4.69E+08
850.328,4.63E+08
850.709,5.38E+08
851.09,3.60E+08
851.47,4.13E+08
851.851,5.23E+08
852.232,3.85E+08
852.613,4.84E+08
852.994,5.44E+08
853.375,4.18E+08
853.756,4.97E+08
854.137,3.87E+08
854.518,4.35E+08
854.899,4.63E+08
855.281,4.27E+08
855.662,3.94E+08
856.043,3.96E+08
856.425,5.43E+08
856.806,4.82E+08
857.188,4.81E+08
857.569,5.73E+08
857.951,4.34E+08
858.332,5.24E+08
858.714,5.86E+08
859.096,4.09E+08
859.477,3.84E+08
859.859,6.26E+08
860.241,7.23E+08
860.623,4.70E+08
861.004,3.68E+08
861.386,4.03E+08
861.768,5.13E+08
862.15,5.47E+08
862.532,5.13E+08
862.914,4.68E+08
863.295,5.22E+08
863.677,5.42E+08
864.059,6.73E+08
864.441,4.84E+08
864.823,5.71E+08
865.205,5.35E+08
865.587,5.26E+08
865.968,4.22E+08
866.35,6.35E+08
866.732,6.61E+08
867.114,4.51E+08
867.496,6.94E+08
867.878,5.63E+08
868.259,4.81E+08
868.641,4.71E+08
869.023,5.97E+08
869.404,5.32E+08
869.786,6.24E+08
870.168,5.16E+08
870.549,6.06E+08
870.93,5.60E+08
871.312,5.04E+08
871.693,7.15E+08
872.075,5.96E+08
872.456,5.75E+08
872.837,5.59E+08
873.218,5.49E+08
873.599,5.10E+08
873.98,5.56E+08
874.361,5.51E+08
874.742,6.55E+08
875.122,5.42E+08
875.503,6.10E+08
875.883,7.62E+08
876.264,6.34E+08
876.644,4.72E+08
877.024,6.92E+08
877.404,6.19E+08
877.784,8.45E+08
878.164,4.76E+08
878.544,4.53E+08
878.923,6.50E+08
879.303,5.83E+08
879.682,4.81E+08
880.061,7.06E+08
880.44,8.24E+08
880.819,5.18E+08
881.197,7.77E+08
881.576,5.65E+08
881.954,3.38E+08
882.332,5.52E+08
882.71,5.04E+08
883.088,5.44E+08
883.465,6.11E+08
883.843,6.77E+08
884.22,5.69E+08
884.596,6.53E+08
884.973,5.78E+08
885.349,5.56E+08
885.726,4.21E+08
886.102,7.23E+08
886.477,6.24E+08
886.853,6.52E+08
887.228,4.84E+08
887.603,6.75E+08
887.977,7.52E+08
888.352,7.14E+08
888.726,5.00E+08
889.099,4.93E+08
889.473,6.93E+08
889.846,6.99E+08
890.219,7.97E+08
890.591,7.05E+08
890.963,8.78E+08
891.335,5.29E+08
891.706,6.15E+08
892.077,4.57E+08
892.448,5.18E+08
892.818,5.16E+08
893.188,5.64E+08
893.558,6.49E+08
893.927,5.79E+08
894.296,6.54E+08
894.664,6.06E+08
895.032,4.55E+08
895.399,7.63E+08
895.766,3.93E+08
896.133,9.34E+08
896.499,6.45E+08
896.864,6.76E+08
897.229,5.57E+08
897.594,6.07E+08
897.958,5.39E+08
898.322,6.58E+08
898.685,4.26E+08
899.047,6.01E+08
899.409,5.43E+08
899.771,5.53E+08
900.131,7.24E+08
900.492,5.93E+08
900.851,3.63E+08
901.211,5.46E+08
901.569,3.73E+08
901.927,7.42E+08
902.284,8.23E+08
902.641,6.03E+08
902.997,4.78E+08
903.352,7.29E+08
903.707,6.24E+08
904.06,4.60E+08
904.414,4.74E+08
904.766,4.17E+08
905.118,5.29E+08
905.469,5.25E+08
905.819,2.61E+08
906.169,5.16E+08
906.517,5.64E+08
906.865,6.86E+08
907.213,6.48E+08
907.559,5.91E+08
907.904,6.56E+08
908.249,6.26E+08
908.593,5.38E+08
908.936,7.59E+08
909.278,6.79E+08
909.619,3.54E+08
909.959,4.47E+08
910.298,4.27E+08
910.637,4.98E+08
910.974,5.78E+08
911.31,4.92E+08
911.646,5.23E+08
911.98,5.03E+08
912.314,6.97E+08
912.646,5.43E+08
912.977,2.81E+08
913.307,5.48E+08
913.637,6.22E+08
913.965,6.96E+08
914.291,5.07E+08
914.617,4.76E+08
914.942,3.61E+08
915.265,4.08E+08
915.588,5.51E+08
915.909,2.77E+08
